Data from 2017_04_28_1_USB2H149121_17-14-18-681.txt Node
Date: Fri Apr 28 17:14:18 BST 2017
User: ucesars
Spectrometer: USB2+H14912
Trigger mode: 0
Integration Time (sec): 2.000000E0
Scans to average: 5
Electric dark correction enabled: true
Nonlinearity correction enabled: false
Boxcar width: 0
XAxis mode: Wavelengths
Number of Pixels in Spectrum: 2048
>>>>>Begin Spectral Data<<<<<
339.57	-359.71
339.955	-359.71
340.34	-359.71
340.725	-419.91
341.11	-48.54
341.495	-189.81
341.88	-71.36
342.265	-150.49
342.65	-113.11
343.034	274.76
343.419	-62.14
343.804	-78.16
344.189	-32.04
344.573	71.85
344.958	72.82
345.343	-75.24
345.727	258.74
346.112	-56.8
346.496	-3.88
346.881	-99.03
347.265	-6.31
347.649	70.39
348.034	28.16
348.418	23.79
348.802	787.88
349.186	148.06
349.571	161.17
349.955	45.15
350.339	309.23
350.723	156.8
351.107	103.4
351.491	146.12
351.875	222.33
352.259	183.98
352.642	205.83
353.026	412.14
353.41	322.82
353.794	353.4
354.177	243.21
354.561	239.81
354.945	297.58
355.328	192.72
355.712	166.51
356.095	289.32
356.479	156.31
356.862	295.15
357.245	211.65
357.629	303.4
358.012	212.14
358.395	264.57
358.778	182.04
359.161	419.91
359.545	120.88
359.928	143.21
360.311	205.34
360.694	203.4
361.077	262.63
361.46	200
361.842	150.49
362.225	103.4
362.608	333.01
362.991	356.32
363.373	178.16
363.756	253.89
364.139	166.99
364.521	146.12
364.904	201.94
365.286	316.51
365.669	486.9
366.051	229.62
366.434	392.72
366.816	136.41
367.198	510.69
367.581	230.1
367.963	247.58
368.345	200
368.727	196.12
369.109	173.3
369.491	87.87
369.873	249.52
370.255	233.5
370.637	156.31
371.019	337.38
371.401	120.88
371.783	140.78
372.165	195.63
372.546	146.6
372.928	264.08
373.31	741.27
373.691	491.76
374.073	145.15
374.454	390.3
374.836	208.26
375.217	252.92
375.599	102.43
375.98	293.69
376.361	95.15
376.743	215.54
377.124	424.76
377.505	278.16
377.886	408.74
378.267	475.25
378.649	371.37
379.03	483.99
379.411	252.92
379.792	272.82
380.172	293.21
380.553	146.12
380.934	164.08
381.315	404.38
381.696	145.63
382.076	295.15
382.457	105.83
382.838	255.83
383.218	208.26
383.599	320.39
383.979	215.54
384.36	191.75
384.74	364.08
385.121	159.71
385.501	80.58
385.881	185.93
386.262	184.47
386.642	713.6
387.022	298.55
387.402	170.88
387.782	125.73
388.162	172.33
388.542	243.21
388.922	371.37
389.302	188.84
389.682	139.32
390.062	252.43
390.442	129.13
390.821	236.41
391.201	183.98
391.581	78.16
391.96	150.97
392.34	270.88
392.72	178.64
393.099	261.17
393.479	450.01
393.858	96.6
394.237	153.4
394.617	229.62
394.996	133.01
395.375	271.36
395.755	125.24
396.134	303.4
396.513	143.69
396.892	203.89
397.271	161.17
397.65	209.23
398.029	273.79
398.408	120.39
398.787	336.9
399.166	222.82
399.545	169.91
399.923	420.39
400.302	195.63
400.681	120.88
401.059	144.18
401.438	356.8
401.817	171.36
402.195	286.9
402.574	297.09
402.952	306.8
403.33	275.73
403.709	313.6
404.087	562.14
404.465	938.85
404.844	1563.62
405.222	1426.72
405.6	1026.23
405.978	496.61
406.356	408.74
406.734	277.67
407.112	413.6
407.49	179.61
407.868	196.12
408.246	262.63
408.624	467
409.001	424.28
409.379	241.27
409.757	222.82
410.134	246.12
410.512	282.53
410.89	273.79
411.267	211.17
411.645	212.14
412.022	183.5
412.399	193.69
412.777	448.07
413.154	166.02
413.531	250
413.909	264.08
414.286	206.8
414.663	321.85
415.04	233.98
415.417	205.83
415.794	398.06
416.171	191.27
416.548	257.29
416.925	286.9
417.302	259.71
417.678	408.74
418.055	264.08
418.432	374.76
418.809	818.94
419.185	278.16
419.562	355.35
419.938	211.17
420.315	444.18
420.691	400.49
421.068	311.17
421.444	459.23
421.82	280.59
422.197	461.17
422.573	1403.42
422.949	242.24
423.325	199.03
423.702	178.64
424.078	281.56
424.454	300.49
424.83	735.45
425.206	374.76
425.582	310.2
425.957	300.98
426.333	316.02
426.709	260.68
427.085	229.62
427.461	656.81
427.836	367.97
428.212	429.13
428.587	261.65
428.963	397.58
429.338	263.11
429.714	261.17
430.089	375.73
430.465	320.88
430.84	527.68
431.215	388.36
431.59	1401.48
431.966	474.76
432.341	477.19
432.716	365.54
433.091	370.39
433.466	462.14
433.841	610.69
434.216	447.09
434.591	820.4
434.966	1043.22
435.34	2548.1
435.715	5919.99
436.09	8045.76
436.465	7677.3
436.839	4099.09
437.214	1996.15
437.588	1050.99
437.963	1028.66
438.337	583.5
438.712	498.55
439.086	443.7
439.461	476.71
439.835	460.69
440.209	519.43
440.583	901.96
440.958	1002.44
441.332	741.27
441.706	456.32
442.08	550.98
442.454	669.91
442.828	571.85
443.202	504.86
443.576	506.32
443.949	673.31
444.323	459.72
444.697	605.83
445.071	444.67
445.444	525.74
445.818	608.75
446.191	435.93
446.565	467.97
446.938	607.78
447.312	549.52
447.685	501.95
448.059	684.96
448.432	500.49
448.805	620.88
449.178	504.86
449.552	642.73
449.925	675.25
450.298	567.48
450.671	580.11
451.044	582.05
451.417	535.45
451.79	517.97
452.163	454.38
452.535	614.57
452.908	550.01
453.281	617.49
453.654	565.06
454.026	472.34
454.399	1066.52
454.772	638.36
455.144	1373.32
455.517	670.88
455.889	540.3
456.261	542.73
456.634	633.99
457.006	800.01
457.378	656.81
457.751	690.79
458.123	580.59
458.495	631.56
458.867	495.15
459.239	485.93
459.611	594.18
459.983	518.45
460.355	846.62
460.727	874.29
461.099	611.17
461.471	857.29
461.842	556.8
462.214	607.78
462.586	583.99
462.957	573.31
463.329	657.78
463.7	653.41
464.072	563.6
464.443	511.17
464.815	611.17
465.186	655.84
465.557	1090.79
465.929	589.33
466.3	799.53
466.671	633.51
467.042	652.92
467.413	1188.85
467.784	740.79
468.155	1030.6
468.526	583.5
468.897	809.72
469.268	770.4
469.639	680.59
470.01	559.72
470.381	651.95
470.751	757.29
471.122	661.18
471.493	647.58
471.863	970.4
472.234	700.98
472.604	633.5
472.975	637.87
473.345	682.53
473.715	662.15
474.086	963.12
474.456	650.01
474.826	651.47
475.196	708.26
475.566	635.93
475.937	641.27
476.307	982.54
476.677	861.66
477.047	643.7
477.417	887.88
477.786	736.9
478.156	660.69
478.526	939.34
478.896	666.52
479.265	715.55
479.635	719.91
480.005	735.45
480.374	778.17
480.744	839.82
481.113	905.35
481.483	876.23
481.852	880.11
482.221	1057.3
482.591	1054.87
482.96	1181.09
483.329	1431.09
483.698	1769.45
484.067	1778.67
484.437	1953.43
484.806	2984.51
485.175	2512.18
485.544	2604.89
485.912	2843.73
486.281	3314.13
486.65	3785.01
487.019	3648.6
487.388	3685.01
487.756	3691.32
488.125	3598.6
488.494	3497.14
488.862	3626.76
489.231	3174.32
489.599	3119.95
489.967	3021.41
490.336	2744.7
490.704	2738.88
491.072	2724.8
491.441	2615.09
491.809	2611.69
492.177	2513.15
492.545	2589.85
492.913	2424.31
493.281	2257.32
493.649	2195.67
494.017	2129.16
494.385	2185.96
494.753	2067.51
495.121	1998.57
495.488	1926.24
495.856	1821.87
496.224	2009.74
496.591	1875.27
496.959	1876.73
497.326	1753.43
497.694	1732.55
498.061	1525.75
498.429	1514.1
498.796	1641.29
499.163	1358.27
499.531	1431.58
499.898	1661.19
500.265	1177.2
500.632	1431.58
500.999	1586.43
501.366	1098.08
501.733	1301.96
502.1	1012.15
502.467	912.15
502.834	888.36
503.201	906.32
503.567	912.64
503.934	904.87
504.301	962.64
504.668	724.28
505.034	752.44
505.401	909.72
505.767	944.67
506.134	703.89
506.5	1261.67
506.866	686.42
507.233	881.08
507.599	836.91
507.965	885.94
508.331	729.14
508.697	661.66
509.064	650.5
509.43	851.96
509.796	654.38
510.162	586.9
510.527	674.28
510.893	731.56
511.259	781.57
511.625	578.16
511.991	624.28
512.356	602.92
512.722	658.75
513.088	822.34
513.453	738.85
513.819	687.87
514.184	693.7
514.55	928.66
514.915	679.14
515.28	618.94
515.646	649.52
516.011	696.61
516.376	647.1
516.741	787.88
517.106	605.83
517.471	698.07
517.836	775.25
518.201	755.84
518.566	901.47
518.931	671.37
519.296	685.45
519.661	592.73
520.025	702.92
520.39	606.81
520.755	741.27
521.119	633.5
521.484	735.93
521.848	667.49
522.213	715.55
522.577	578.65
522.942	849.53
523.306	608.26
523.67	743.22
524.034	584.48
524.399	537.87
524.763	1123.32
525.127	735.45
525.491	760.69
525.855	869.43
526.219	879.63
526.583	571.37
526.947	615.54
527.311	565.06
527.674	646.61
528.038	809.72
528.402	750.5
528.765	839.33
529.129	609.23
529.493	831.57
529.856	738.36
530.22	1110.21
530.583	775.74
530.946	777.2
531.31	736.9
531.673	735.93
532.036	1082.54
532.399	826.71
532.763	1008.75
533.126	1270.41
533.489	1236.43
533.852	1247.59
534.215	1365.56
534.578	1249.53
534.94	1366.53
535.303	1343.71
535.666	1249.53
536.029	1300.99
536.391	1592.74
536.754	2193.24
537.117	1930.13
537.479	2449.07
537.842	2698.59
538.204	3123.84
538.567	3551.03
538.929	3935.5
539.291	4409.29
539.654	5010.27
540.016	6160.78
540.378	8337.99
540.74	9582.67
541.102	12559.42
541.464	16780.84
541.826	21076.54
542.188	23669.79
542.55	23587.75
542.912	22209.57
543.274	20360.03
543.636	18876.02
543.997	18253.2
544.359	17857.07
544.721	18072.61
545.082	18462.91
545.444	18585.73
545.805	25341.17
546.167	33153.43
546.528	36688.92
546.889	32770.9
547.251	25871.76
547.612	21173.14
547.973	17409.98
548.334	14961.88
548.695	13422.54
549.057	12071.55
549.418	10879.78
549.779	9960.83
550.14	9266.16
550.5	8553.05
550.861	7655.46
551.222	7113.7
551.583	6410.78
551.944	5875.33
552.304	5403
552.665	4835.03
553.025	4499.1
553.386	4176.28
553.746	3956.86
554.107	3798.6
554.467	3252.48
554.827	2985.48
555.188	2901.02
555.548	2604.89
555.908	2503.44
556.268	2422.37
556.628	2301.98
556.989	2125.28
557.349	1939.84
557.708	1937.41
558.068	1998.57
558.428	1819.93
558.788	2027.22
559.148	1985.47
559.508	1815.08
559.867	1649.05
560.227	1648.08
560.587	1587.4
560.946	1816.53
561.306	1703.91
561.665	1550.02
562.024	1591.29
562.384	1860.71
562.743	1858.28
563.102	1720.42
563.462	1550.02
563.821	1789.83
564.18	1602.94
564.539	1517.5
564.898	1542.74
565.257	1576.72
565.616	1748.57
565.975	1547.11
566.334	1640.32
566.692	1875.27
567.051	1533.52
567.41	1575.75
567.769	1607.31
568.127	1562.65
568.486	1636.92
568.844	1716.05
569.203	1524.3
569.561	1582.55
569.919	1477.21
570.278	1593.23
570.636	1626.72
570.994	1509.25
571.352	1590.8
571.711	1448.57
572.069	1428.18
572.427	1484
572.785	1720.42
573.143	1895.66
573.501	1570.9
573.858	6796.22
574.216	1894.69
574.574	1603.42
574.932	1996.63
575.289	1602.94
575.647	1586.43
576.005	1706.34
576.362	1927.7
576.72	2844.22
577.077	4045.21
577.434	4605.41
577.792	4734.05
578.149	3517.05
578.506	3318.98
578.864	3643.75
579.221	4206.38
579.578	4600.56
579.935	4387.45
580.292	4523.37
580.649	4615.61
581.006	4708.33
581.363	4474.83
581.719	4101.52
582.076	4343.76
582.433	4512.21
582.79	4830.66
583.146	5446.69
583.503	5997.18
583.859	5819.51
584.216	5895.24
584.572	5746.69
584.929	6016.11
585.285	5671.45
585.641	5239.89
585.998	5490.86
586.354	5117.07
586.71	5256.88
587.066	5991.84
587.422	7368.08
587.778	7921
588.134	7766.63
588.49	6826.32
588.846	5973.39
589.202	5086.97
589.557	4402.5
589.913	4079.19
590.269	3701.51
590.625	3659.28
590.98	3708.31
591.336	3855.4
591.691	3885.98
592.047	5007.36
592.402	4514.63
592.757	5267.07
593.113	6026.79
593.468	6538.94
593.823	6864.67
594.178	6237.48
594.533	5234.55
594.888	4558.32
595.243	3872.39
595.598	3735.49
595.953	3144.71
596.308	3187.91
596.663	3123.35
597.018	3128.69
597.373	3075.78
597.727	3252.96
598.082	3513.16
598.436	3101.99
598.791	3486.95
599.145	3759.77
599.5	4376.77
599.854	4673.37
600.209	4693.76
600.563	4390.85
600.917	4044.24
601.271	3628.21
601.626	3223.84
601.98	2848.1
602.334	2804.9
602.688	2907.33
603.042	2441.79
603.396	2193.72
603.749	2419.46
604.103	2389.84
604.457	2372.85
604.811	2296.64
605.164	2604.89
605.518	2487.42
605.872	2387.42
606.225	2731.11
606.579	2633.05
606.932	2910.72
607.285	2797.62
607.639	3007.81
607.992	3420.93
608.345	3655.88
608.698	4267.06
609.052	4521.43
609.405	5453
609.758	6694.28
610.111	8224.89
610.464	11948.73
610.817	19837.69
611.169	33247.6
611.522	45651.2
611.875	51147.88
612.228	47583.26
612.58	39853.05
612.933	32804.88
613.286	27201.39
613.638	22358.6
613.991	18832.82
614.343	16638.12
614.695	15572.09
615.048	14358.96
615.4	13092.92
615.752	11601.64
616.104	9876.37
616.457	8925.87
616.809	7140.4
617.161	6051.07
617.513	5207.36
617.865	4736
618.216	4288.9
618.568	4134.04
618.92	3690.35
619.272	3676.27
619.624	3471.41
619.975	3635.49
620.327	3738.41
620.678	3615.1
621.03	3714.14
621.381	4050.55
621.733	3898.6
622.084	3685.01
622.435	3925.79
622.787	4901.05
623.138	3872.39
623.489	4013.17
623.84	5022.89
624.191	4115.11
624.542	4581.14
624.893	4335.5
625.244	4452.98
625.595	4211.72
625.946	4217.54
626.296	4372.4
626.647	4136.96
626.998	4168.03
627.348	4121.42
627.699	4082.1
628.05	3724.33
628.4	3833.55
628.75	3557.82
629.101	3593.75
629.451	3481.61
629.801	3544.72
630.152	3626.76
630.502	4262.69
630.852	5111.73
631.202	5952.03
631.552	6918.55
631.902	5897.18
632.252	5022.89
632.602	4030.65
632.952	3240.34
633.302	2665.58
633.651	2141.78
634.001	1712.16
634.351	1571.87
634.7	1388.37
635.05	1269.92
635.399	1170.41
635.749	1274.29
636.098	1173.32
636.447	1642.74
636.797	1147.11
637.146	1047.59
637.495	1145.16
637.844	1010.21
638.194	959.24
638.543	965.55
638.892	1182.06
639.241	1101.96
639.589	951.96
639.938	882.05
640.287	912.15
640.636	848.07
640.985	795.64
641.333	898.07
641.682	943.22
642.03	978.17
642.379	1007.3
642.727	759.72
643.076	900.5
643.424	795.16
643.773	1125.26
644.121	955.35
644.469	1038.37
644.817	898.07
645.165	788.85
645.513	1100.5
645.861	804.38
646.209	835.94
646.557	907.78
646.905	858.75
647.253	786.42
647.601	784.96
647.948	774.77
648.296	864.09
648.644	772.83
648.991	833.99
649.339	741.76
649.686	892.25
650.034	1146.62
650.381	1461.19
650.728	1791.29
651.076	1943.23
651.423	1956.83
651.77	1699.54
652.117	1411.19
652.464	1181.09
652.811	1144.68
653.158	1096.62
653.505	1286.43
653.852	1217.01
654.199	1087.88
654.546	1114.1
654.893	912.64
655.239	982.05
655.586	858.27
655.932	752.44
656.279	766.52
656.625	890.79
656.972	726.22
657.318	893.7
657.665	807.29
658.011	898.07
658.357	779.14
658.703	750.98
659.049	4118.51
659.396	812.15
659.742	911.18
660.088	731.08
660.434	583.02
660.779	561.66
661.125	672.83
661.471	782.54
661.817	625.74
662.162	867
662.508	1166.52
662.854	1284.49
663.199	1243.71
663.545	1078.66
663.89	922.34
664.236	966.03
664.581	810.69
664.926	764.09
665.271	660.2
665.617	862.63
665.962	669.91
666.307	711.66
666.652	582.05
666.997	565.06
667.342	470.4
667.687	532.53
668.031	706.81
668.376	617.49
668.721	513.6
669.066	478.65
669.41	556.8
669.755	551.95
670.099	617.49
670.444	522.82
670.788	521.85
671.133	475.25
671.477	603.89
671.821	407.29
672.166	431.56
672.51	1423.81
672.854	506.8
673.198	400.49
673.542	418.94
673.886	394.18
674.23	495.15
674.574	485.93
674.918	467
675.261	444.18
675.605	547.58
675.949	558.75
676.292	584.48
676.636	561.17
676.98	375.73
677.323	504.86
677.666	286.41
678.01	792.73
678.353	527.68
678.696	927.68
679.04	455.83
679.383	354.37
679.726	397.09
680.069	475.25
680.412	505.35
680.755	438.36
681.098	427.68
681.441	486.9
681.784	514.57
682.126	862.15
682.469	430.1
682.812	539.33
683.154	541.76
683.497	525.25
683.84	698.55
684.182	606.32
684.524	574.77
684.867	401.46
685.209	407.77
685.551	294.18
685.894	683.02
686.236	692.73
686.578	566.51
686.92	765.55
687.262	685.45
687.604	748.56
687.946	1966.05
688.288	1475.27
688.629	836.91
688.971	837.88
689.313	654.38
689.655	765.06
689.996	561.66
690.338	2947.13
690.679	1004.87
691.021	501.95
691.362	388.36
691.703	664.57
692.045	346.12
692.386	590.79
692.727	602.92
693.068	401.46
693.409	557.78
693.75	710.21
694.091	658.75
694.432	955.35
694.773	733.02
695.114	500.98
695.455	405.83
695.796	330.1
696.136	425.25
696.477	380.1
696.818	677.68
697.158	256.8
697.499	201.94
697.839	371.85
698.179	534.47
698.52	455.83
698.86	157.28
699.2	353.89
699.54	324.76
699.88	224.28
700.221	390.78
700.561	186.9
700.901	98.55
701.24	367.48
701.58	205.83
701.92	417.97
702.26	275.73
702.6	258.26
702.939	230.59
703.279	297.09
703.618	619.91
703.958	670.88
704.297	435.93
704.637	431.56
704.976	490.3
705.315	376.22
705.655	477.19
705.994	569.91
706.333	881.08
706.672	943.22
707.011	1098.56
707.35	1557.31
707.689	1502.94
708.028	1381.57
708.367	1268.47
708.706	1417.98
709.044	1399.05
709.383	1701.48
709.722	2073.82
710.06	1587.4
710.399	1240.31
710.737	1004.87
711.076	857.78
711.414	1040.79
711.752	1015.55
712.091	1121.38
712.429	1295.17
712.767	1506.82
713.105	1472.35
713.443	1137.88
713.781	1022.35
714.119	685.93
714.457	967.01
714.795	958.27
715.133	642.73
715.471	331.07
715.808	446.12
716.146	469.42
716.484	244.18
716.821	221.85
717.159	134.47
717.496	454.38
717.833	200.97
718.171	244.66
718.508	1052.93
718.845	469.91
719.182	353.4
719.52	288.84
719.857	255.34
720.194	389.33
720.531	183.01
720.868	216.02
721.204	206.31
721.541	188.35
721.878	257.77
722.215	317.97
722.551	240.3
722.888	250
723.225	249.52
723.561	163.59
723.898	107.28
724.234	193.21
724.57	226.7
724.907	213.11
725.243	193.69
725.579	228.16
725.915	424.76
726.251	119.9
726.587	205.83
726.923	373.31
727.259	175.73
727.595	201.94
727.931	225.73
728.267	243.69
728.602	185.44
728.938	381.07
729.274	247.58
729.609	191.75
729.945	139.32
730.28	279.62
730.616	440.3
730.951	163.59
731.286	412.63
731.622	172.82
731.957	179.61
732.292	226.7
732.627	585.93
732.962	445.15
733.297	229.13
733.632	156.8
733.967	180.59
734.302	352.43
734.637	200.97
734.971	172.82
735.306	128.64
735.641	217.48
735.975	217.96
736.31	302.43
736.644	268.94
736.979	267.97
737.313	182.53
737.647	133.5
737.982	358.74
738.316	208.26
738.65	219.91
738.984	1007.3
739.318	320.39
739.652	157.77
739.986	298.55
740.32	348.06
740.654	216.02
740.988	113.59
741.321	214.57
741.655	210.2
741.989	348.55
742.322	152.92
742.656	351.95
742.989	325.25
743.323	463.6
743.656	230.59
743.989	334.96
744.323	390.3
744.656	195.15
744.989	359.23
745.322	148.55
745.655	337.87
745.988	211.65
746.321	280.1
746.654	167.48
746.987	137.38
747.32	172.33
747.652	116.99
747.985	149.52
748.318	144.18
748.65	142.72
748.983	197.58
749.315	213.11
749.648	285.93
749.98	243.21
750.312	136.41
750.645	176.22
750.977	238.84
751.309	355.35
751.641	259.71
751.973	163.11
752.305	194.66
752.637	208.26
752.969	185.93
753.301	251.46
753.632	197.58
753.964	300
754.296	278.65
754.627	172.33
754.959	208.26
755.291	237.87
755.622	223.79
755.953	227.19
756.285	153.89
756.616	272.82
756.947	168.45
757.279	400.49
757.61	146.12
757.941	278.65
758.272	216.51
758.603	207.77
758.934	158.74
759.265	170.88
759.595	193.69
759.926	154.86
760.257	299.52
760.588	317.48
760.918	309.71
761.249	200
761.579	279.13
761.91	381.07
762.24	200.49
762.57	235.44
762.901	345.15
763.231	151.46
763.561	347.58
763.891	213.11
764.221	421.85
764.551	144.66
764.881	369.42
765.211	120.88
765.541	89.32
765.871	119.9
766.201	319.91
766.53	196.61
766.86	891.76
767.19	185.93
767.519	308.26
767.849	267.48
768.178	295.64
768.507	294.66
768.837	200.49
769.166	117.48
769.495	320.88
769.824	152.92
770.154	213.6
770.483	262.14
770.812	503.41
771.141	428.16
771.469	140.78
771.798	325.25
772.127	234.47
772.456	239.81
772.785	156.31
773.113	431.07
773.442	158.25
773.77	264.57
774.099	363.11
