Data from 2017_04_28_1_USB2H149121_17-14-28-674.txt Node
Date: Fri Apr 28 17:14:28 BST 2017
User: ucesars
Spectrometer: USB2+H14912
Trigger mode: 0
Integration Time (sec): 2.000000E0
Scans to average: 5
Electric dark correction enabled: true
Nonlinearity correction enabled: false
Boxcar width: 0
XAxis mode: Wavelengths
Number of Pixels in Spectrum: 2048
>>>>>Begin Spectral Data<<<<<
339.57	-365.21
339.955	-365.21
340.34	-365.21
340.725	-400.16
341.11	12.96
341.495	-180.74
341.88	-74.42
342.265	-132.68
342.65	-140.93
343.034	300.82
343.419	-50.15
343.804	-87.53
344.189	-49.18
344.573	88.68
344.958	87.71
345.343	-50.15
345.727	235.29
346.112	-88.5
346.496	-50.64
346.881	-62.29
347.265	2.76
347.649	71.21
348.034	24.12
348.418	13.93
348.802	776.56
349.186	133.83
349.571	151.79
349.955	55.67
350.339	293.06
350.723	139.17
351.107	76.55
351.491	130.43
351.875	221.21
352.259	186.26
352.642	180.92
353.026	405.68
353.41	307.13
353.794	346.94
354.177	209.07
354.561	229.46
354.945	370.24
355.328	150.82
355.712	205.19
356.095	266.36
356.479	190.14
356.862	258.1
357.245	225.58
357.629	264.42
358.012	218.78
358.395	231.41
358.778	152.76
359.161	438.2
359.545	124.12
359.928	152.76
360.311	196.45
360.694	186.26
361.077	266.36
361.46	205.19
361.842	155.19
362.225	63.44
362.608	284.32
362.991	342.09
363.373	152.76
363.756	188.2
364.139	207.13
364.521	130.92
364.904	196.94
365.286	331.41
365.669	466.36
366.051	183.35
366.434	393.06
366.816	126.06
367.198	482.87
367.581	237.23
367.963	278.01
368.345	211.02
368.727	237.23
369.109	170.72
369.491	95
369.873	219.75
370.255	234.32
370.637	166.36
371.019	350.82
371.401	83.34
371.783	107.62
372.165	245
372.546	176.06
372.928	310.05
373.31	744.03
373.691	446.94
374.073	149.85
374.454	386.26
374.836	211.02
375.217	249.85
375.599	110.53
375.98	319.76
376.361	95
376.743	206.16
377.124	427.52
377.505	243.06
377.886	351.8
378.267	459.08
378.649	304.22
379.03	472.19
379.411	286.26
379.792	249.37
380.172	306.65
380.553	139.17
380.934	147.91
381.315	383.83
381.696	111.5
382.076	306.65
382.457	88.2
382.838	262.47
383.218	186.26
383.599	269.76
383.979	228.49
384.36	172.67
384.74	382.86
385.121	116.84
385.501	92.57
385.881	188.2
386.262	152.76
386.642	701.32
387.022	290.14
387.402	193.54
387.782	128.01
388.162	157.13
388.542	220.73
388.922	345
389.302	209.07
389.682	103.25
390.062	247.42
390.442	124.12
390.821	190.14
391.201	162.96
391.581	87.23
391.96	97.91
392.34	233.35
392.72	210.05
393.099	227.04
393.479	454.71
393.858	112.96
394.237	187.23
394.617	263.44
394.996	108.59
395.375	228.49
395.755	132.37
396.134	346.46
396.513	129.46
396.892	236.26
397.271	152.28
397.65	224.61
398.029	248.4
398.408	145.48
398.787	343.54
399.166	225.09
399.545	175.58
399.923	423.16
400.302	195
400.681	117.81
401.059	116.35
401.438	340.63
401.817	150.82
402.195	247.42
402.574	259.56
402.952	320.73
403.33	279.46
403.709	321.7
404.087	581.9
404.465	924.62
404.844	1532.88
405.222	1412.01
405.6	1011.51
405.978	526.07
406.356	358.11
406.734	281.89
407.112	439.66
407.49	155.68
407.868	219.27
408.246	261.5
408.624	505.2
409.001	482.38
409.379	311.99
409.757	227.52
410.134	236.75
410.512	259.56
410.89	222.18
411.267	188.69
411.645	233.83
412.022	179.95
412.399	168.78
412.777	418.79
413.154	200.34
413.531	257.62
413.909	181.89
414.286	178.98
414.663	306.65
415.04	199.85
415.417	236.26
415.794	371.21
416.171	195.48
416.548	200.82
416.925	289.17
417.302	204.71
417.678	363.93
418.055	264.9
418.432	317.33
418.809	800.83
419.185	267.81
419.562	302.28
419.938	197.42
420.315	446.46
420.691	389.66
421.068	258.1
421.444	465.39
421.82	285.29
422.197	469.27
422.573	1436.28
422.949	259.56
423.325	177.04
423.702	204.22
424.078	288.2
424.454	270.73
424.83	738.21
425.206	371.7
425.582	282.38
425.957	291.6
426.333	320.73
426.709	238.2
427.085	259.56
427.461	665.39
427.836	306.16
428.212	417.82
428.587	208.1
428.963	475.1
429.338	257.62
429.714	280.44
430.089	375.1
430.465	293.06
430.84	532.87
431.215	403.74
431.59	1368.8
431.966	484.32
432.341	472.19
432.716	396.94
433.091	372.67
433.466	459.08
433.841	670.25
434.216	423.64
434.591	829.96
434.966	1040.16
435.34	2501.83
435.715	5922.27
436.09	7999.97
436.465	7682.49
436.839	4062.53
437.214	1934.34
437.588	1032.39
437.963	1008.12
438.337	549.37
438.712	500.34
439.086	462.96
439.461	474.61
439.835	441.6
440.209	545.49
440.583	899.86
440.958	973.16
441.332	728.5
441.706	419.27
442.08	508.11
442.454	691.12
442.828	609.08
443.202	489.66
443.576	534.81
443.949	705.2
444.323	436.26
444.697	646.46
445.071	455.68
445.444	559.57
445.818	580.93
446.191	414.9
446.565	471.21
446.938	613.45
447.312	530.44
447.685	462.96
448.059	637.24
448.432	539.66
448.805	603.74
449.178	476.07
449.552	637.72
449.925	687.72
450.298	584.32
450.671	526.56
451.044	534.81
451.417	554.71
451.79	586.75
452.163	478.5
452.535	579.95
452.908	511.02
453.281	633.35
453.654	561.99
454.026	469.76
454.399	1095.98
454.772	673.16
455.144	1380.94
455.517	666.85
455.889	555.68
456.261	553.25
456.634	676.07
457.006	736.75
457.378	655.68
457.751	705.2
458.123	548.89
458.495	632.87
458.867	493.55
459.239	473.16
459.611	570.25
459.983	522.67
460.355	811.51
460.727	845.01
461.099	656.17
461.471	876.08
461.842	553.74
462.214	592.58
462.586	534.32
462.957	528.5
463.329	639.66
463.7	688.21
464.072	556.65
464.443	552.77
464.815	624.13
465.186	646.95
465.557	997.44
465.929	564.91
466.3	805.69
466.671	635.3
467.042	653.74
467.413	1150.35
467.784	745.01
468.155	979.96
468.526	601.31
468.897	798.89
469.268	778.99
469.639	665.39
470.01	579.95
470.381	645
470.751	702.29
471.122	676.07
471.493	628.01
471.863	990.15
472.234	684.81
472.604	624.62
472.975	599.37
473.345	638.21
473.715	639.18
474.086	969.28
474.456	660.54
474.826	655.2
475.196	656.65
475.566	638.69
475.937	643.06
476.307	1025.11
476.677	889.67
477.047	682.87
477.417	852.77
477.786	713.94
478.156	652.77
478.526	896.46
478.896	686.27
479.265	698.89
479.635	696.46
480.005	716.36
480.374	752.77
480.744	841.61
481.113	889.67
481.483	862.97
481.852	889.67
482.221	1057.63
482.591	1096.95
482.96	1200.35
483.329	1461.04
483.698	1790.65
484.067	1831.43
484.437	1949.39
484.806	2941.64
485.175	2556.68
485.544	2612.02
485.912	2899.41
486.281	3264.46
486.65	3802.82
487.019	3617.38
487.388	3638.74
487.756	3763.01
488.125	3628.06
488.494	3507.18
488.862	3702.82
489.231	3272.71
489.599	3179.02
489.967	2984.85
490.336	2733.87
490.704	2713.97
491.072	2652.8
491.441	2635.33
491.809	2629.99
492.177	2523.67
492.545	2554.26
492.913	2452.8
493.281	2260.08
493.649	2226.1
494.017	2140.17
494.385	2191.14
494.753	2088.23
495.121	2051.34
495.488	1894.05
495.856	1803.76
496.224	2007.16
496.591	1906.19
496.959	1796.96
497.326	1748.42
497.694	1731.43
498.061	1502.3
498.429	1519.29
498.796	1612.49
499.163	1345.99
499.531	1355.69
499.898	1606.67
500.265	1182.39
500.632	1385.31
500.999	1575.6
501.366	1084.33
501.733	1275.11
502.1	948.41
502.467	914.43
502.834	891.12
503.201	879.47
503.567	910.06
503.934	936.27
504.301	961.51
504.668	698.89
505.034	732.38
505.401	828.5
505.767	944.52
506.134	678.01
506.5	1225.6
506.866	729.47
507.233	873.65
507.599	824.13
507.965	894.04
508.331	687.24
508.697	612.48
509.064	633.35
509.43	877.53
509.796	643.06
510.162	583.84
510.527	643.06
510.893	659.57
511.259	794.04
511.625	603.26
511.991	638.69
512.356	611.02
512.722	666.85
513.088	796.46
513.453	697.43
513.819	704.23
514.184	715.39
514.55	925.11
514.915	684.81
515.28	646.46
515.646	661.51
516.011	633.35
516.376	623.16
516.741	757.14
517.106	575.1
517.471	671.7
517.836	745.01
518.201	781.9
518.566	917.82
518.931	653.74
519.296	694.03
519.661	625.59
520.025	687.24
520.39	567.33
520.755	739.67
521.119	598.89
521.484	737.24
521.848	669.76
522.213	791.61
522.577	607.14
522.942	825.1
523.306	604.71
523.67	727.04
524.034	508.11
524.399	560.54
524.763	1112
525.127	733.35
525.491	802.29
525.855	873.65
526.219	867.34
526.583	559.57
526.947	648.4
527.311	564.91
527.674	663.94
528.038	766.85
528.402	735.3
528.765	833.84
529.129	585.29
529.493	825.1
529.856	703.26
530.22	1070.74
530.583	806.66
530.946	766.37
531.31	778.99
531.673	740.64
532.036	1076.56
532.399	822.68
532.763	997.44
533.126	1312.49
533.489	1194.04
533.852	1195.98
534.215	1382.39
534.578	1260.06
534.94	1328.51
535.303	1343.56
535.666	1241.62
536.029	1324.14
536.391	1593.08
536.754	2173.67
537.117	1968.81
537.479	2435.32
537.842	2749.89
538.204	3112.03
538.567	3535.83
538.929	3917.87
539.291	4391.66
539.654	5042.65
540.016	6203.34
540.378	8227.65
540.74	9517.96
541.102	12520.92
541.464	16720.5
541.826	21114.74
542.188	23658.95
542.55	23681.77
542.912	21980.77
543.274	20246.77
543.636	18615.19
543.997	18246.25
544.359	17946.73
544.721	18019.55
545.082	18255.47
545.444	18677.81
545.805	25494.91
546.167	33319.78
546.528	36756.73
546.889	32828.03
547.251	25860.93
547.612	21089.5
547.973	17443.81
548.334	14923.38
548.695	13306.85
549.057	12053.92
549.418	10952.45
549.779	9992.24
550.14	9255.82
550.5	8540.27
550.861	7748.03
551.222	7082
551.583	6406.74
551.944	5780.52
552.304	5324.2
552.665	4884.39
553.025	4508.66
553.386	4184.38
553.746	3955.74
554.107	3827.58
554.467	3239.7
554.827	2989.7
555.188	2844.07
555.548	2623.68
555.908	2454.74
556.268	2434.84
556.628	2296
556.989	2049.39
557.349	1983.37
557.708	1943.57
558.068	2035.8
558.428	1818.32
558.788	2112.99
559.148	1909.59
559.508	1839.2
559.867	1684.83
560.227	1660.07
560.587	1595.5
560.946	1767.35
561.306	1691.14
561.665	1565.41
562.024	1572.2
562.384	1844.05
562.743	1806.19
563.102	1671.23
563.462	1573.66
563.821	1832.89
564.18	1618.32
564.539	1594.53
564.898	1537.25
565.257	1517.35
565.616	1641.14
565.975	1525.11
566.334	1551.81
566.692	1862.01
567.051	1541.62
567.41	1551.33
567.769	1580.46
568.127	1545.99
568.486	1657.64
568.844	1738.71
569.203	1553.76
569.561	1559.1
569.919	1464.92
570.278	1607.64
570.636	1608.61
570.994	1500.84
571.352	1586.28
571.711	1457.15
572.069	1434.34
572.427	1479.48
572.785	1721.23
573.143	1869.29
573.501	1523.17
573.858	6668.4
574.216	1820.75
574.574	1540.65
574.932	2004.25
575.289	1575.12
575.647	1552.3
576.005	1720.75
576.362	1868.81
576.72	2828.53
577.077	3974.67
577.434	4641.18
577.792	4776.14
578.149	3535.83
578.506	3306.21
578.864	3618.84
579.221	4198.94
579.578	4607.69
579.935	4447.49
580.292	4527.59
580.649	4606.23
581.006	4723.71
581.363	4501.37
581.719	4150.88
582.076	4430.99
582.433	4535.36
582.79	4807.69
583.146	5431.49
583.503	6020.33
583.859	5877.12
584.216	5937.8
584.572	5737.32
584.929	5988.78
585.285	5529.55
585.641	5222.75
585.998	5484.89
586.354	5065.46
586.71	5251.39
587.066	6013.53
587.422	7282.49
587.778	7922.79
588.134	7802.88
588.49	6772.28
588.846	6015.48
589.202	5009.15
589.557	4400.89
589.913	4096.03
590.269	3713.01
590.625	3678.55
590.98	3761.07
591.336	3830
591.691	3953.31
592.047	4963.03
592.402	4511.08
592.757	5140.22
593.113	6025.67
593.468	6405.77
593.823	6857.72
594.178	6233.44
594.533	5231
594.888	4505.26
595.243	3864.96
595.598	3759.13
595.953	3223.68
596.308	3158.15
596.663	3158.15
597.018	3100.87
597.373	3021.25
597.727	3274.17
598.082	3509.61
598.436	3160.58
598.791	3466.41
599.145	3738.74
599.5	4324.67
599.854	4656.72
600.209	4658.66
600.563	4363.51
600.917	3967.87
601.271	3624.66
601.626	3224.17
601.98	2864.94
602.334	2831.45
602.688	2924.17
603.042	2396.49
603.396	2233.86
603.749	2444.06
604.103	2409.59
604.457	2380.95
604.811	2283.86
605.164	2616.88
605.518	2448.43
605.872	2341.63
606.225	2656.2
606.579	2598.43
606.932	2909.12
607.285	2819.8
607.639	2998.92
607.992	3402.81
608.345	3635.83
608.698	4244.57
609.052	4457.2
609.405	5478.09
609.758	6586.84
610.111	8192.69
610.464	11923.33
610.817	19883.17
611.169	32998.42
611.522	45657.35
611.875	51074.43
612.228	47425.83
612.58	40015.52
612.933	32683.37
613.286	27000.75
613.638	22132.23
613.991	18848.69
614.343	16623.41
614.695	15646.21
615.048	14445.7
615.4	13075.78
615.752	11496.14
616.104	9837.38
616.457	8927.66
616.809	7177.14
617.161	5983.92
617.513	5352.36
617.865	4806.23
618.216	4324.19
618.568	4139.23
618.92	3701.85
619.272	3769.32
619.624	3426.6
619.975	3594.56
620.327	3754.76
620.678	3613.01
621.03	3732.43
621.381	3994.09
621.733	3865.93
622.084	3760.59
622.435	3861.56
622.787	4856.23
623.138	3824.18
623.489	4007.19
623.84	5011.58
624.191	4030.49
624.542	4540.7
624.893	4238.26
625.244	4435.84
625.595	4248.94
625.946	4224.67
626.296	4342.63
626.647	4158.17
626.998	4207.68
627.348	4106.22
627.699	4108.16
628.05	3734.86
628.4	3881.46
628.75	3520.29
629.101	3642.14
629.451	3509.13
629.801	3562.53
630.152	3720.78
630.502	4181.95
630.852	5105.27
631.202	5944.12
631.552	6813.55
631.902	5958.19
632.252	4972.74
632.602	4123.21
632.952	3318.83
633.302	2668.82
633.651	2199.4
634.001	1716.38
634.351	1511.04
634.7	1400.84
635.05	1216.37
635.399	1145.98
635.749	1294.53
636.098	1125.11
636.447	1643.08
636.797	1081.9
637.146	1095.01
637.495	1122.2
637.844	979.48
638.194	977.05
638.543	926.56
638.892	1175.11
639.241	1060.06
639.589	940.15
639.938	840.64
640.287	850.35
640.636	805.69
640.985	742.58
641.333	831.9
641.682	946.95
642.03	943.55
642.379	1038.7
642.727	798.4
643.076	902.77
643.424	797.43
643.773	1118.8
644.121	915.88
644.469	1021.22
644.817	845.49
645.165	828.02
645.513	1068.31
645.861	794.52
646.209	828.5
646.557	851.32
646.905	864.91
647.253	793.55
647.601	811.03
647.948	759.57
648.296	883.84
648.644	795.49
648.991	798.89
649.339	793.06
649.686	867.34
650.034	1131.9
650.381	1409.58
650.728	1797.45
651.076	1877.55
651.423	1879
651.77	1694.53
652.117	1430.94
652.464	1182.88
652.811	1105.69
653.158	1076.56
653.505	1283.36
653.852	1202.78
654.199	1046.95
654.546	1157.63
654.893	907.63
655.239	961.03
655.586	842.09
655.932	750.35
656.279	802.29
656.625	873.65
656.972	694.03
657.318	837.73
657.665	795.98
658.011	858.11
658.357	761.03
658.703	738.69
659.049	4264.96
659.396	805.69
659.742	924.62
660.088	705.2
660.434	545.49
660.779	574.61
661.125	649.37
661.471	750.83
661.817	600.34
662.162	892.58
662.508	1205.21
662.854	1315.89
663.199	1283.85
663.545	1065.88
663.89	871.71
664.236	1001.81
664.581	754.23
664.926	758.6
665.271	625.1
665.617	874.62
665.962	671.22
666.307	705.68
666.652	570.73
666.997	537.72
667.342	450.83
667.687	527.04
668.031	725.59
668.376	639.66
668.721	532.38
669.066	457.14
669.41	549.37
669.755	550.34
670.099	640.63
670.444	528.5
670.788	506.65
671.133	463.45
671.477	590.63
671.821	413.45
672.166	432.86
672.51	1424.14
672.854	504.71
673.198	441.12
673.542	384.81
673.886	384.32
674.23	493.06
674.574	502.77
674.918	447.43
675.261	469.76
675.605	536.26
675.949	604.23
676.292	528.01
676.636	528.01
676.98	344.51
677.323	542.58
677.666	334.8
678.01	823.16
678.353	483.35
678.696	892.58
679.04	440.63
679.383	382.38
679.726	401.8
680.069	479.47
680.412	494.52
680.755	396.46
681.098	423.64
681.441	483.35
681.784	526.56
682.126	866.85
682.469	435.29
682.812	564.91
683.154	495
683.497	530.44
683.84	739.67
684.182	606.17
684.524	563.93
684.867	370.24
685.209	410.53
685.551	297.91
685.894	677.53
686.236	583.35
686.578	535.29
686.92	805.2
687.262	660.05
687.604	763.94
687.946	1993.08
688.288	1454.73
688.629	822.68
688.971	855.69
689.313	649.37
689.655	783.36
689.996	558.59
690.338	2944.07
690.679	994.04
691.021	492.09
691.362	363.93
691.703	653.26
692.045	320.73
692.386	580.44
692.727	542.09
693.068	408.59
693.409	548.4
693.75	728.5
694.091	644.52
694.432	951.32
694.773	736.27
695.114	486.75
695.455	354.22
695.796	352.77
696.136	428.01
696.477	365.87
696.818	674.62
697.158	258.1
697.499	175.09
697.839	310.53
698.179	547.43
698.52	452.28
698.86	174.61
699.2	305.68
699.54	306.16
699.88	182.86
700.221	357.14
700.561	245
700.901	159.07
701.24	398.88
701.58	165.87
701.92	379.95
702.26	246.45
702.6	248.88
702.939	242.09
703.279	293.06
703.618	625.59
703.958	651.31
704.297	427.04
704.637	444.03
704.976	461.51
705.315	358.11
705.655	470.24
705.994	550.34
706.333	840.15
706.672	964.43
707.011	1080.93
707.35	1491.62
707.689	1466.38
708.028	1368.32
708.367	1287.25
708.706	1405.21
709.044	1462.01
709.383	1710.07
709.722	2027.06
710.06	1595.99
710.399	1192.59
710.737	1024.62
711.076	896.95
711.414	1039.67
711.752	1040.64
712.091	1057.63
712.429	1267.83
712.767	1511.52
713.105	1524.14
713.443	1125.11
713.781	1045.5
714.119	683.84
714.457	937.24
714.795	937.73
715.133	576.56
715.471	328.49
715.808	419.76
716.146	473.64
716.484	240.14
716.821	196.94
717.159	114.41
717.496	483.35
717.833	193.06
718.171	221.7
718.508	1049.86
718.845	459.08
719.182	269.27
719.52	279.95
719.857	227.04
720.194	395.97
720.531	166.36
720.868	203.73
721.204	235.29
721.541	186.26
721.878	283.35
722.215	335.78
722.551	191.11
722.888	229.46
723.225	269.76
723.561	137.23
723.898	99.85
724.234	220.24
724.57	209.07
724.907	187.72
725.243	198.4
725.579	228.98
725.915	382.86
726.251	133.83
726.587	209.56
726.923	361.5
727.259	175.58
727.595	173.15
727.931	218.78
728.267	242.09
728.602	177.52
728.938	356.16
729.274	197.91
729.609	178.49
729.945	156.16
730.28	263.44
730.616	477.53
730.951	237.23
731.286	411.99
731.622	204.22
731.957	198.4
732.292	211.02
732.627	515.88
732.962	470.73
733.297	229.46
733.632	118.78
733.967	212.47
734.302	354.71
734.637	179.46
734.971	168.3
735.306	122.67
735.641	220.73
735.975	185.29
736.31	261.99
736.644	315.87
736.979	222.18
737.313	194.03
737.647	160.53
737.982	347.43
738.316	193.06
738.65	217.33
738.984	979.96
739.318	288.2
739.652	146.94
739.986	308.59
740.32	319.76
740.654	232.38
740.988	89.66
741.321	235.29
741.655	187.23
741.989	353.25
742.322	138.69
742.656	318.79
742.989	255.19
743.323	442.57
743.656	237.72
743.989	311.99
744.323	367.33
744.656	176.06
744.989	332.86
745.322	189.17
745.655	376.07
745.988	169.27
746.321	270.24
746.654	140.63
746.987	163.93
747.32	157.13
747.652	134.8
747.985	127.03
748.318	116.84
748.65	115.87
748.983	196.45
749.315	225.58
749.648	282.86
749.98	211.99
750.312	139.17
750.645	170.24
750.977	253.25
751.309	382.38
751.641	205.68
751.973	154.22
752.305	171.21
752.637	223.15
752.969	199.37
753.301	238.2
753.632	188.69
753.964	235.29
754.296	241.6
754.627	161.99
754.959	184.8
755.291	221.21
755.622	201.31
755.953	221.21
756.285	145.97
756.616	321.21
756.947	173.64
757.279	362.48
757.61	116.84
757.941	268.78
758.272	215.39
758.603	181.4
758.934	134.32
759.265	139.17
759.595	169.27
759.926	179.95
760.257	263.44
760.588	287.72
760.918	286.26
761.249	228.49
761.579	262.96
761.91	399.85
762.24	214.9
762.57	199.37
762.901	352.28
763.231	118.78
763.561	304.71
763.891	211.99
764.221	408.59
764.551	128.98
764.881	333.83
765.211	135.77
765.541	94.02
765.871	25.58
766.201	312.47
766.53	171.7
766.86	834.81
767.19	184.8
767.519	322.18
767.849	238.69
768.178	321.21
768.507	270.24
768.837	229.95
769.166	89.17
769.495	324.61
769.824	120.72
770.154	171.21
770.483	274.61
770.812	424.61
771.141	407.62
771.469	147.42
771.798	372.18
772.127	255.68
772.456	220.24
772.785	198.4
773.113	458.11
773.442	126.55
773.77	264.9
774.099	339.17
