Data from 2017_04_28_1_USB2H149121_17-06-22-806.txt Node
Date: Fri Apr 28 17:06:22 BST 2017
User: ucesars
Spectrometer: USB2+H14912
Trigger mode: 0
Integration Time (sec): 2.000000E0
Scans to average: 5
Electric dark correction enabled: true
Nonlinearity correction enabled: false
Boxcar width: 0
XAxis mode: Wavelengths
Number of Pixels in Spectrum: 2048
>>>>>Begin Spectral Data<<<<<
339.57	-359.05
339.955	-359.05
340.34	-359.05
340.725	-398.37
341.11	-51.28
341.495	-164.38
341.88	-60.5
342.265	-114.87
342.65	-144.97
343.034	322.03
343.419	-80.4
343.804	-80.4
344.189	-27.97
344.573	47.76
344.958	57.95
345.343	-68.27
345.727	235.62
346.112	-77.49
346.496	24.94
346.881	-91.57
347.265	-13.41
347.649	71.54
348.034	22.51
348.418	23.97
348.802	772.04
349.186	120.09
349.571	172.51
349.955	62.8
350.339	288.05
350.723	147.76
351.107	70.09
351.491	163.78
351.875	206.5
352.259	154.55
352.642	192.9
353.026	395.82
353.41	331.74
353.794	329.8
354.177	202.61
354.561	190.96
354.945	291.45
355.328	159.41
355.712	157.95
356.095	272.52
356.479	180.77
356.862	238.05
357.245	216.69
357.629	310.38
358.012	223.49
358.395	193.87
358.778	186.59
359.161	410.87
359.545	78.34
359.928	125.91
360.311	196.79
360.694	166.69
361.077	250.67
361.46	173.49
361.842	168.63
362.225	88.05
362.608	303.58
362.991	312.81
363.373	135.62
363.756	225.43
364.139	161.35
364.521	89.99
364.904	181.25
365.286	311.35
365.669	467.67
366.051	203.1
366.434	361.35
366.816	149.21
367.198	451.16
367.581	209.41
367.963	274.46
368.345	161.35
368.727	211.84
369.109	163.78
369.491	65.72
369.873	202.13
370.255	236.11
370.637	141.45
371.019	357.95
371.401	110.38
371.783	124.94
372.165	186.11
372.546	149.7
372.928	257.47
373.31	698.25
373.691	447.28
374.073	165.72
374.454	350.67
374.836	187.56
375.217	269.12
375.599	123
375.98	326.89
376.361	104.07
376.743	217.18
377.124	399.22
377.505	239.99
377.886	337.08
378.267	471.55
378.649	317.66
379.03	456.5
379.411	257.47
379.792	244.85
380.172	268.63
380.553	128.34
380.934	149.7
381.315	423.49
381.696	120.57
382.076	320.09
382.457	113.29
382.838	218.63
383.218	157.47
383.599	293.39
383.979	194.36
384.36	173.49
384.74	358.93
385.121	188.53
385.501	121.06
385.881	171.54
386.262	149.7
386.642	692.91
387.022	247.27
387.402	195.33
387.782	113.78
388.162	139.02
388.542	229.31
388.922	355.53
389.302	135.62
389.682	110.86
390.062	289.02
390.442	120.09
390.821	213.29
391.201	168.15
391.581	56.01
391.96	132.22
392.34	205.04
392.72	203.1
393.099	222.52
393.479	462.81
393.858	127.85
394.237	185.62
394.617	262.81
394.996	130.28
395.375	206.5
395.755	105.04
396.134	291.45
396.513	139.5
396.892	196.3
397.271	122.51
397.65	233.68
398.029	294.85
398.408	138.53
398.787	323
399.166	159.41
399.545	180.77
399.923	402.13
400.302	223.97
400.681	98.24
401.059	120.57
401.438	342.42
401.817	161.84
402.195	232.71
402.574	236.11
402.952	300.67
403.33	240.48
403.709	272.03
404.087	546.79
404.465	893.4
404.844	1493.89
405.222	1424.48
405.6	1064.76
405.978	529.8
406.356	350.67
406.734	252.61
407.112	402.13
407.49	168.63
407.868	213.29
408.246	261.84
408.624	499.22
409.001	429.8
409.379	307.47
409.757	244.36
410.134	284.17
410.512	227.86
410.89	242.42
411.267	180.28
411.645	177.37
412.022	166.2
412.399	175.43
412.777	415.72
413.154	168.63
413.531	271.06
413.909	185.62
414.286	150.18
414.663	312.32
415.04	202.13
415.417	216.69
415.794	405.04
416.171	221.54
416.548	242.9
416.925	275.91
417.302	235.62
417.678	371.06
418.055	247.76
418.432	387.08
418.809	755.53
419.185	236.11
419.562	265.23
419.938	231.74
420.315	453.1
420.691	361.35
421.068	260.38
421.444	446.79
421.82	306.01
422.197	467.18
422.573	1388.55
422.949	256.5
423.325	171.06
423.702	199.21
424.078	248.24
424.454	295.82
424.83	723.98
425.206	349.22
425.582	239.99
425.957	267.66
426.333	313.29
426.709	262.81
427.085	260.38
427.461	668.15
427.836	348.25
428.212	445.33
428.587	254.07
428.963	406.5
429.338	297.76
429.714	268.63
430.089	348.73
430.465	285.14
430.84	538.54
431.215	400.19
431.59	1402.63
431.966	434.65
432.341	547.76
432.716	371.06
433.091	361.84
433.466	439.51
433.841	667.67
434.216	462.81
434.591	775.92
434.966	931.75
435.34	2176.91
435.715	5675.51
436.09	7925.06
436.465	8013.41
436.839	4310.44
437.214	2024.49
437.588	1003.11
437.963	1019.62
438.337	603.59
438.712	488.05
439.086	434.65
439.461	470.58
439.835	437.57
440.209	556.02
440.583	904.08
440.958	969.13
441.332	748.25
441.706	447.76
442.08	452.62
442.454	656.02
442.828	577.86
443.202	475.43
443.576	483.68
443.949	681.26
444.323	448.73
444.697	637.09
445.071	424.95
445.444	498.73
445.818	566.7
446.191	407.47
446.565	463.78
446.938	554.07
447.312	509.9
447.685	485.63
448.059	678.35
448.432	487.08
448.805	595.34
449.178	496.79
449.552	613.3
449.925	688.06
450.298	588.54
450.671	537.57
451.044	574.46
451.417	527.37
451.79	515.24
452.163	447.76
452.535	624.95
452.908	530.29
453.281	583.2
453.654	489.51
454.026	490
454.399	1098.74
454.772	665.24
455.144	1330.3
455.517	683.2
455.889	565.72
456.261	562.33
456.634	633.69
457.006	772.52
457.378	663.78
457.751	687.09
458.123	548.25
458.495	585.14
458.867	500.68
459.239	439.51
459.611	594.85
459.983	491.94
460.355	790.49
460.727	843.4
461.099	668.15
461.471	801.65
461.842	545.82
462.214	590.97
462.586	522.52
462.957	531.74
463.329	656.99
463.7	672.04
464.072	555.05
464.443	540.97
464.815	593.4
465.186	648.25
465.557	976.9
465.929	577.38
466.3	738.54
466.671	628.35
467.042	623.01
467.413	1129.33
467.784	776.41
468.155	924.95
468.526	560.87
468.897	852.14
469.268	791.46
469.639	661.84
470.01	531.26
470.381	635.14
470.751	699.22
471.122	660.87
471.493	616.21
471.863	979.32
472.234	682.23
472.604	653.1
472.975	600.68
473.345	656.02
473.715	618.64
474.086	950.68
474.456	613.3
474.826	618.15
475.196	682.23
475.566	638.54
475.937	603.59
476.307	993.89
476.677	817.67
477.047	694.85
477.417	848.25
477.786	691.45
478.156	628.83
478.526	866.21
478.896	690.97
479.265	670.1
479.635	692.91
480.005	738.54
480.374	769.13
480.744	833.69
481.113	906.99
481.483	853.11
481.852	877.38
482.221	1029.81
482.591	1051.65
482.96	1199.72
483.329	1401.17
483.698	1690.01
484.067	1761.37
484.437	1954.58
484.806	2863.82
485.175	2420.61
485.544	2583.72
485.912	2844.89
486.281	3274.5
486.65	3705.58
487.019	3560.92
487.388	3588.59
487.756	3691.99
488.125	3507.52
488.494	3478.39
488.862	3625.97
489.231	3238.1
489.599	3149.75
489.967	2980.33
490.336	2673.04
490.704	2636.63
491.072	2607.99
491.441	2563.33
491.809	2614.79
492.177	2507.99
492.545	2560.42
492.913	2383.23
493.281	2269.15
493.649	2131.28
494.017	2085.17
494.385	2096.82
494.753	2060.89
495.121	1947.3
495.488	1894.87
495.856	1817.69
496.224	1959.92
496.591	1860.89
496.959	1843.41
497.326	1727.39
497.694	1713.8
498.061	1485.16
498.429	1476.42
498.796	1585.16
499.163	1342.92
499.531	1405.06
499.898	1607
500.265	1156.51
500.632	1553.12
500.999	1572.54
501.366	1106.51
501.733	1316.22
502.1	977.38
502.467	941.94
502.834	825.44
503.201	911.85
503.567	917.19
503.934	902.62
504.301	918.16
504.668	728.35
505.034	708.93
505.401	845.83
505.767	924.95
506.134	694.37
506.5	1213.31
506.866	688.54
507.233	854.56
507.599	861.85
507.965	847.77
508.331	698.25
508.697	682.23
509.064	624.95
509.43	823.01
509.796	582.72
510.162	605.05
510.527	669.12
510.893	744.37
511.259	758.45
511.625	627.86
511.991	569.12
512.356	588.06
512.722	691.94
513.088	775.44
513.453	723.49
513.819	678.83
514.184	691.94
514.55	926.41
514.915	676.89
515.28	634.17
515.646	634.66
516.011	690.97
516.376	627.38
516.741	760.87
517.106	582.23
517.471	685.63
517.836	813.3
518.201	748.74
518.566	899.23
518.931	662.81
519.296	668.64
519.661	571.55
520.025	687.09
520.39	622.04
520.755	763.79
521.119	593.88
521.484	703.59
521.848	702.62
522.213	782.72
522.577	521.06
522.942	766.7
523.306	630.29
523.67	665.73
524.034	543.88
524.399	545.82
524.763	1057.97
525.127	727.86
525.491	778.83
525.855	896.31
526.219	794.37
526.583	550.68
526.947	623.49
527.311	560.87
527.674	632.72
528.038	751.16
528.402	744.85
528.765	811.85
529.129	588.06
529.493	865.24
529.856	722.04
530.22	1114.76
530.583	782.23
530.946	714.76
531.31	743.88
531.673	729.81
532.036	1107.48
532.399	773.98
532.763	997.77
533.126	1306.03
533.489	1216.71
533.852	1237.09
534.215	1358.94
534.578	1210.88
534.94	1315.25
535.303	1328.84
535.666	1184.67
536.029	1311.37
536.391	1581.76
536.754	2120.12
537.117	1859.43
537.479	2384.2
537.842	2656.53
538.204	3095.86
538.567	3467.23
538.929	3846.84
539.291	4317.72
539.654	4957.06
540.016	6053.19
540.378	8020.21
540.74	9285.28
541.102	12185.81
541.464	16305.29
541.826	20654.39
542.188	23380.16
542.55	23374.33
542.912	21959.75
543.274	19993.21
543.636	18401.44
543.997	17664.53
544.359	17455.79
544.721	17672.3
545.082	18014.05
545.444	18104.35
545.805	24177.74
546.167	32495.35
546.528	36032.3
546.889	33188.08
547.251	25807.87
547.612	21249.54
547.973	17537.35
548.334	14979.54
548.695	13305.73
549.057	12048.43
549.418	10817.83
549.779	9952.76
550.14	9151.78
550.5	8457.6
550.861	7640.59
551.222	7013.88
551.583	6425.52
551.944	5805.61
552.304	5284.73
552.665	4864.34
553.025	4511.9
553.386	4155.59
553.746	3787.13
554.107	3748.78
554.467	3215.28
554.827	3009.45
555.188	2891.97
555.548	2616.73
555.908	2494.4
556.268	2461.39
556.628	2364.78
556.989	2074.49
557.349	1950.7
557.708	1937.11
558.068	2030.31
558.428	1795.36
558.788	1854.09
559.148	1918.66
559.508	1807.49
559.867	1649.24
560.227	1642.93
560.587	1554.58
560.946	1730.31
561.306	1654.58
561.665	1541.95
562.024	1609.92
562.384	1865.75
562.743	1778.37
563.102	1645.35
563.462	1528.36
563.821	1779.34
564.18	1579.33
564.539	1561.37
564.898	1515.74
565.257	1544.87
565.616	1656.03
565.975	1582.25
566.334	1603.61
566.692	1791.47
567.051	1538.07
567.41	1512.34
567.769	1629.33
568.127	1567.2
568.486	1623.02
568.844	1699.24
569.203	1569.14
569.561	1500.69
569.919	1514.28
570.278	1629.82
570.636	1599.72
570.994	1499.23
571.352	1579.33
571.711	1401.66
572.069	1426.9
572.427	1523.99
572.785	1758.95
573.143	1890.5
573.501	1520.11
573.858	6637.66
574.216	1839.53
574.574	1571.57
574.932	1969.63
575.289	1570.59
575.647	1596.32
576.005	1710.89
576.362	1856.04
576.72	2750.71
577.077	3900.73
577.434	4536.66
577.792	4737.15
578.149	3433.25
578.506	3215.77
578.864	3471.6
579.221	4195.39
579.578	4523.55
579.935	4437.14
580.292	4400.74
580.649	4495.88
581.006	4671.13
581.363	4502.68
581.719	4111.41
582.076	4309.47
582.433	4387.63
582.79	4733.75
583.146	5406.58
583.503	5769.69
583.859	5706.58
584.216	5812.89
584.572	5637.65
584.929	5884.74
585.285	5529.88
585.641	5165.8
585.998	5480.85
586.354	5039.58
586.71	5084.24
587.066	5782.31
587.422	7069.22
587.778	7710.98
588.134	7749.33
588.49	6673.59
588.846	5928.43
589.202	5014.82
589.557	4382.77
589.913	4021.12
590.269	3668.69
590.625	3544.41
590.98	3696.36
591.336	3737.13
591.691	3765.77
592.047	4882.3
592.402	4472.1
592.757	5088.61
593.113	5887.65
593.468	6403.68
593.823	6739.61
594.178	6242.03
594.533	5237.16
594.888	4556.08
595.243	3814.8
595.598	3718.69
595.953	3164.31
596.308	3189.07
596.663	3159.45
597.018	3074.5
597.373	3027.41
597.727	3203.14
598.082	3465.77
598.436	3040.04
598.791	3386.16
599.145	3680.82
599.5	4270.15
599.854	4617.73
600.209	4645.89
600.563	4370.15
600.917	3997.82
601.271	3612.86
601.626	3188.58
601.98	2860.91
602.334	2806.05
602.688	2877.9
603.042	2354.1
603.396	2244.39
603.749	2403.13
604.103	2394.88
604.457	2335.17
604.811	2227.4
605.164	2566.73
605.518	2416.72
605.872	2345.85
606.225	2662.84
606.579	2620.61
606.932	2876.44
607.285	2797.31
607.639	2981.3
607.992	3346.84
608.345	3560.43
608.698	4094.42
609.052	4410.44
609.405	5303.18
609.758	6469.7
610.111	7922.64
610.464	11410.55
610.817	18659.21
611.169	31798.25
611.522	44400.39
611.875	50354.36
612.228	47248.98
612.58	39907.6
612.933	32515.74
613.286	26948.66
613.638	22168
613.991	18665.04
614.343	16459.66
614.695	15431
615.048	14190.21
615.4	12909.61
615.752	11425.6
616.104	9767.81
616.457	8897.41
616.809	7151.75
617.161	6012.9
617.513	5345.41
617.865	4681.81
618.216	4287.14
618.568	4073.06
618.92	3695.87
619.272	3670.14
619.624	3367.22
619.975	3507.52
620.327	3698.78
620.678	3569.17
621.03	3607.52
621.381	3941.02
621.733	3774.51
622.084	3701.7
622.435	3802.18
622.787	4774.53
623.138	3785.68
623.489	3928.88
623.84	4910.45
624.191	4051.7
624.542	4467.73
624.893	4233.26
625.244	4332.29
625.595	4247.34
625.946	4158.5
626.296	4342
626.647	4095.39
626.998	4180.83
627.348	4053.16
627.699	4049.76
628.05	3712.86
628.4	3789.08
628.75	3544.9
629.101	3564.32
629.451	3436.16
629.801	3515.77
630.152	3683.73
630.502	4108.98
630.852	5000.75
631.202	5853.19
631.552	6828.93
631.902	5921.15
632.252	4981.33
632.602	4057.04
632.952	3297.32
633.302	2613.33
633.651	2214.78
634.001	1704.09
634.351	1486.61
634.7	1410.88
635.05	1206.03
635.399	1158.45
635.749	1293.89
636.098	1164.28
636.447	1604.58
636.797	1111.36
637.146	1128.84
637.495	1109.91
637.844	970.1
638.194	943.89
638.543	928.84
638.892	1192.43
639.241	1062.82
639.589	984.66
639.938	830.29
640.287	868.64
640.636	792.91
640.985	737.57
641.333	910.88
641.682	921.56
642.03	954.57
642.379	993.4
642.727	772.52
643.076	930.78
643.424	851.17
643.773	1127.38
644.121	909.9
644.469	1013.79
644.817	813.79
645.165	767.18
645.513	1049.71
645.861	814.27
646.209	790.97
646.557	897.77
646.905	903.11
647.253	782.72
647.601	767.18
647.948	821.07
648.296	837.09
648.644	770.58
648.991	790.97
649.339	752.14
649.686	868.16
650.034	1091.95
650.381	1437.1
650.728	1740.99
651.076	1898.76
651.423	1935.65
651.77	1689.04
652.117	1415.25
652.464	1205.06
652.811	1142.43
653.158	1121.07
653.505	1277.87
653.852	1232.24
654.199	1055.54
654.546	1102.14
654.893	880.29
655.239	973.01
655.586	800.19
655.932	746.8
656.279	737.09
656.625	858.93
656.972	691.94
657.318	835.15
657.665	796.31
658.011	886.12
658.357	756.02
658.703	736.6
659.049	4016.75
659.396	790
659.742	940
660.088	692.91
660.434	589.51
660.779	556.99
661.125	642.43
661.471	741.46
661.817	594.37
662.162	830.29
662.508	1089.52
662.854	1240.01
663.199	1211.85
663.545	1038.55
663.89	862.82
664.236	978.35
664.581	773.98
664.926	722.52
665.271	662.81
665.617	875.92
665.962	702.13
666.307	662.81
666.652	579.32
666.997	569.12
667.342	456.01
667.687	543.39
668.031	706.99
668.376	651.16
668.721	511.84
669.066	461.84
669.41	543.88
669.755	531.26
670.099	561.36
670.444	511.84
670.788	474.95
671.133	468.64
671.477	583.2
671.821	367.66
672.166	380.29
672.51	1383.7
672.854	499.22
673.198	393.88
673.542	411.84
673.886	376.89
674.23	463.78
674.574	489.02
674.918	456.5
675.261	413.78
675.605	551.65
675.949	557.96
676.292	506.5
676.636	506.99
676.98	354.07
677.323	529.32
677.666	301.16
678.01	845.34
678.353	528.35
678.696	887.09
679.04	427.86
679.383	366.21
679.726	401.64
680.069	458.44
680.412	476.89
680.755	396.79
681.098	376.89
681.441	478.83
681.784	511.84
682.126	831.75
682.469	411.84
682.812	507.47
683.154	534.17
683.497	500.68
683.84	737.09
684.182	597.76
684.524	533.69
684.867	382.71
685.209	382.23
685.551	328.34
685.894	702.13
686.236	630.77
686.578	557.47
686.92	738.06
687.262	648.25
687.604	767.18
687.946	1941.96
688.288	1420.59
688.629	840
688.971	816.21
689.313	660.39
689.655	760.39
689.996	571.06
690.338	2741.97
690.679	961.36
691.021	486.6
691.362	358.44
691.703	594.37
692.045	276.4
692.386	530.77
692.727	556.99
693.068	408.93
693.409	538.54
693.75	649.22
694.091	627.86
694.432	927.87
694.773	712.81
695.114	501.16
695.455	415.24
695.796	345.82
696.136	412.32
696.477	335.62
696.818	299.22
697.158	220.09
697.499	189.51
697.839	350.19
698.179	540
698.52	464.75
698.86	190.48
699.2	320.58
699.54	278.34
699.88	203.58
700.221	340.48
700.561	214.26
700.901	147.76
701.24	320.58
701.58	209.41
701.92	385.14
702.26	212.32
702.6	249.22
702.939	204.55
703.279	305.53
703.618	609.41
703.958	615.24
704.297	422.52
704.637	424.95
704.976	483.68
705.315	355.04
705.655	486.11
705.994	563.3
706.333	813.79
706.672	941.94
707.011	1076.9
707.35	1558.94
707.689	1453.12
708.028	1349.23
708.367	1273.99
708.706	1357
709.044	1446.32
709.383	1654.58
709.722	1968.17
710.06	1581.27
710.399	1184.67
710.737	993.89
711.076	852.14
711.414	1024.96
711.752	973.98
712.091	1106.02
712.429	1283.7
712.767	1485.16
713.105	1472.05
713.443	1116.7
713.781	1017.19
714.119	636.6
714.457	913.79
714.795	957.96
715.133	597.28
715.471	331.74
715.808	442.42
716.146	481.26
716.484	209.41
716.821	194.36
717.159	140.48
717.496	447.28
717.833	188.05
718.171	247.76
718.508	1028.84
718.845	428.34
719.182	361.35
719.52	316.21
719.857	251.16
720.194	380.29
720.531	161.35
720.868	203.58
721.204	204.55
721.541	156.01
721.878	210.86
722.215	267.18
722.551	185.62
722.888	198.73
723.225	254.55
723.561	150.67
723.898	84.16
724.234	208.92
724.57	217.18
724.907	166.69
725.243	241.45
725.579	218.63
725.915	380.77
726.251	149.7
726.587	204.55
726.923	351.16
727.259	163.29
727.595	190.96
727.931	214.75
728.267	263.29
728.602	154.55
728.938	309.41
729.274	254.07
729.609	188.05
729.945	145.82
730.28	254.55
730.616	466.69
730.951	151.16
731.286	414.75
731.622	198.73
731.957	188.53
732.292	210.38
732.627	546.79
732.962	432.23
733.297	224.46
733.632	124.94
733.967	229.31
734.302	377.86
734.637	169.12
734.971	149.21
735.306	123.48
735.641	196.3
735.975	188.53
736.31	293.39
736.644	226.4
736.979	222.03
737.313	202.61
737.647	130.77
737.982	339.99
738.316	123
738.65	196.3
738.984	977.38
739.318	288.54
739.652	144.84
739.986	257.95
740.32	328.83
740.654	199.21
740.988	106.98
741.321	232.71
741.655	214.26
741.989	368.63
742.322	121.54
742.656	315.24
742.989	268.63
743.323	393.88
743.656	204.07
743.989	306.98
744.323	404.56
744.656	164.26
744.989	313.78
745.322	165.72
745.655	361.84
745.988	218.15
746.321	272.03
746.654	154.55
746.987	167.17
747.32	132.71
747.652	135.62
747.985	155.52
748.318	134.65
748.65	101.15
748.983	195.82
749.315	223.97
749.648	284.17
749.98	264.26
750.312	115.72
750.645	139.99
750.977	167.66
751.309	303.58
751.641	201.64
751.973	153.58
752.305	160.38
752.637	187.08
752.969	169.6
753.301	245.82
753.632	204.55
753.964	237.08
754.296	222.03
754.627	142.42
754.959	193.87
755.291	257.95
755.622	231.74
755.953	223
756.285	128.82
756.616	285.14
756.947	173
757.279	386.6
757.61	113.78
757.941	260.38
758.272	201.16
758.603	189.99
758.934	126.88
759.265	91.93
759.595	152.61
759.926	152.61
760.257	259.89
760.588	254.07
760.918	296.79
761.249	218.15
761.579	254.55
761.91	399.22
762.24	222.52
762.57	231.25
762.901	335.14
763.231	116.2
763.561	295.82
763.891	167.66
764.221	372.52
764.551	101.64
764.881	323.49
765.211	108.92
765.541	87.56
765.871	70.09
766.201	276.4
766.53	188.05
766.86	806.02
767.19	209.41
767.519	321.55
767.849	238.05
768.178	317.66
768.507	323
768.837	206.98
769.166	91.45
769.495	286.59
769.824	136.11
770.154	146.3
770.483	265.72
770.812	486.11
771.141	447.76
771.469	87.56
771.798	354.07
772.127	223.49
772.456	204.07
772.785	149.7
773.113	409.41
773.442	134.16
773.77	280.77
774.099	243.88
