Data from 2017_04_28_1_USB2H149121_17-06-12-806.txt Node
Date: Fri Apr 28 17:06:12 BST 2017
User: ucesars
Spectrometer: USB2+H14912
Trigger mode: 0
Integration Time (sec): 2.000000E0
Scans to average: 5
Electric dark correction enabled: true
Nonlinearity correction enabled: false
Boxcar width: 0
XAxis mode: Wavelengths
Number of Pixels in Spectrum: 2048
>>>>>Begin Spectral Data<<<<<
339.57	-383.93
339.955	-383.93
340.34	-383.93
340.725	-387.81
341.11	5.4
341.495	-148
341.88	-76.64
342.265	-134.41
342.65	-138.29
343.034	243.75
343.419	-64.02
343.804	-119.84
344.189	-75.67
344.573	100.55
344.958	88.9
345.343	-31.49
345.727	253.95
346.112	-94.6
346.496	-11.1
346.881	-55.28
347.265	20.93
347.649	93.27
348.034	69.96
348.418	44.24
348.802	762.69
349.186	135.99
349.571	154.43
349.955	79.19
350.339	338.42
350.723	174.82
351.107	92.3
351.491	143.75
351.875	211.71
352.259	159.77
352.642	203.46
353.026	387.45
353.41	309.77
353.794	335.5
354.177	218.51
354.561	233.56
354.945	289.39
355.328	146.66
355.712	166.08
356.095	290.84
356.479	195.21
356.862	269.97
357.245	199.09
357.629	276.28
358.012	205.4
358.395	252.98
358.778	132.1
359.161	404.92
359.545	120.94
359.928	165.6
360.311	197.15
360.694	181.62
361.077	264.63
361.46	214.63
361.842	166.57
362.225	108.8
362.608	282.59
362.991	326.76
363.373	165.11
363.756	233.56
364.139	157.83
364.521	110.74
364.904	179.19
365.286	274.34
365.669	466.09
366.051	184.04
366.434	376.28
366.816	113.17
367.198	506.38
367.581	212.69
367.963	256.86
368.345	199.58
368.727	276.76
369.109	181.13
369.491	103.95
369.873	235.02
370.255	213.17
370.637	145.21
371.019	334.53
371.401	80.16
371.783	121.91
372.165	213.66
372.546	186.47
372.928	254.43
373.31	723.37
373.691	436.48
374.073	183.56
374.454	373.37
374.836	241.33
375.217	243.27
375.599	108.31
375.98	321.91
376.361	134.04
376.743	224.82
377.124	413.17
377.505	244.72
377.886	379.68
378.267	469
378.649	279.68
379.03	480.65
379.411	278.71
379.792	230.65
380.172	290.84
380.553	132.59
380.934	133.56
381.315	419
381.696	150.06
382.076	300.07
382.457	99.58
382.838	226.28
383.218	187.44
383.599	323.85
383.979	223.37
384.36	182.1
384.74	388.42
385.121	150.55
385.501	106.37
385.881	177.73
386.262	171.91
386.642	750.56
387.022	253.95
387.402	185.99
387.782	145.21
388.162	109.29
388.542	224.82
388.922	375.79
389.302	157.34
389.682	115.6
390.062	297.15
390.442	130.65
390.821	214.14
391.201	169.97
391.581	91.32
391.96	125.31
392.34	218.03
392.72	173.85
393.099	252.98
393.479	461.72
393.858	116.08
394.237	155.89
394.617	305.41
394.996	124.82
395.375	244.72
395.755	147.64
396.134	340.36
396.513	160.26
396.892	204.92
397.271	181.62
397.65	248.61
398.029	292.78
398.408	140.84
398.787	331.62
399.166	204.92
399.545	152
399.923	456.38
400.302	208.8
400.681	101.03
401.059	129.67
401.438	347.64
401.817	135.5
402.195	255.89
402.574	263.66
402.952	362.69
403.33	249.09
403.709	326.76
404.087	552.98
404.465	959.3
404.844	1522.9
405.222	1457.85
405.6	1099.59
405.978	519
406.356	376.28
406.734	279.19
407.112	416.57
407.49	170.45
407.868	212.69
408.246	255.4
408.624	505.41
409.001	435.5
409.379	303.95
409.757	213.17
410.134	271.91
410.512	237.93
410.89	226.28
411.267	186.96
411.645	221.91
412.022	166.57
412.399	211.71
412.777	422.4
413.154	165.6
413.531	279.68
413.909	252.01
414.286	193.27
414.663	262.2
415.04	209.77
415.417	253.46
415.794	403.47
416.171	243.75
416.548	248.61
416.925	256.86
417.302	220.94
417.678	358.32
418.055	242.78
418.432	345.21
418.809	793.28
419.185	249.09
419.562	296.67
419.938	178.7
420.315	459.78
420.691	381.13
421.068	245.21
421.444	430.16
421.82	268.03
422.197	466.57
422.573	1368.53
422.949	272.88
423.325	171.91
423.702	212.69
424.078	262.2
424.454	262.2
424.83	723.86
425.206	388.9
425.582	280.16
425.957	291.33
426.333	272.88
426.709	264.14
427.085	259.29
427.461	660.75
427.836	362.69
428.212	402.01
428.587	273.85
428.963	403.95
429.338	296.67
429.714	292.3
430.089	399.1
430.465	304.92
430.84	555.89
431.215	394.73
431.59	1344.74
431.966	485.02
432.341	562.69
432.716	361.72
433.091	357.35
433.466	472.88
433.841	632.59
434.216	411.72
434.591	829.2
434.966	911.24
435.34	2212.23
435.715	5650.63
436.09	8037.08
436.465	7993.87
436.839	4224.4
437.214	2036.99
437.588	1043.77
437.963	1000.56
438.337	607.84
438.712	487.45
439.086	428.22
439.461	464.15
439.835	454.44
440.209	537.93
440.583	904.93
440.958	976.29
441.332	790.85
441.706	449.58
442.08	503.95
442.454	670.46
442.828	589.39
443.202	497.64
443.576	518.03
443.949	707.35
444.323	432.59
444.697	621.43
445.071	456.38
445.444	573.86
445.818	586.48
446.191	402.98
446.565	478.71
446.938	620.46
447.312	527.25
447.685	487.93
448.059	672.89
448.432	530.17
448.805	630.17
449.178	556.38
449.552	635.51
449.925	669.49
450.298	541.33
450.671	529.68
451.044	581.62
451.417	575.8
451.79	557.35
452.163	500.55
452.535	612.21
452.908	532.11
453.281	607.35
453.654	528.71
454.026	514.15
454.399	1071.92
454.772	654.93
455.144	1382.61
455.517	648.61
455.889	534.54
456.261	574.34
456.634	630.17
457.006	766.09
457.378	692.79
457.751	711.24
458.123	565.12
458.495	606.38
458.867	508.81
459.239	479.19
459.611	539.39
459.983	524.34
460.355	752.5
460.727	852.02
461.099	653.47
461.471	858.33
461.842	552.5
462.214	565.6
462.586	533.56
462.957	594.73
463.329	659.78
463.7	687.45
464.072	561.23
464.443	532.59
464.815	616.58
465.186	651.04
465.557	982.6
465.929	592.79
466.3	795.7
466.671	634.05
467.042	663.66
467.413	1115.61
467.784	753.96
468.155	942.79
468.526	601.04
468.897	781.14
469.268	776.29
469.639	655.9
470.01	564.15
470.381	640.85
470.751	702.5
471.122	666.09
471.493	669.97
471.863	1016.1
472.234	679.2
472.604	629.68
472.975	614.63
473.345	664.15
473.715	636.96
474.086	986.48
474.456	613.66
474.826	628.71
475.196	661.72
475.566	639.88
475.937	664.15
476.307	984.54
476.677	874.35
477.047	685.99
477.417	863.67
477.786	756.38
478.156	673.37
478.526	876.29
478.896	675.8
479.265	739.88
479.635	696.67
480.005	735.51
480.374	765.12
480.744	808.81
481.113	913.18
481.483	864.15
481.852	853.96
482.221	1047.65
482.591	1011.24
482.96	1152.51
483.329	1397.66
483.698	1738.44
484.067	1793.29
484.437	1972.91
484.806	2906.9
485.175	2474.86
485.544	2627.77
485.912	2772.43
486.281	3253.51
486.65	3687.01
487.019	3566.14
487.388	3589.44
487.756	3712.74
488.125	3482.64
488.494	3500.6
488.862	3601.09
489.231	3249.14
489.599	3141.37
489.967	2969.52
490.336	2766.61
490.704	2634.08
491.072	2686.51
491.441	2551.56
491.809	2661.27
492.177	2497.67
492.545	2534.57
492.913	2353.5
493.281	2307.86
493.649	2210.77
494.017	2096.21
494.385	2175.82
494.753	2104.95
495.121	2025.33
495.488	1928.25
495.856	1819.99
496.224	2031.65
496.591	1837.47
496.959	1808.83
497.326	1706.4
497.694	1739.41
498.061	1491.83
498.429	1521.93
498.796	1569.5
499.163	1340.86
499.531	1419.01
499.898	1621.45
500.265	1198.62
500.632	1510.28
500.999	1523.87
501.366	1075.32
501.733	1294.74
502.1	1027.26
502.467	892.31
502.834	883.57
503.201	900.56
503.567	939.88
503.934	889.39
504.301	946.68
504.668	787.94
505.034	719.97
505.401	850.56
505.767	965.12
506.134	694.73
506.5	1242.8
506.866	697.16
507.233	818.03
507.599	819.49
507.965	888.42
508.331	691.82
508.697	648.61
509.064	643.76
509.43	847.16
509.796	673.86
510.162	603.47
510.527	664.63
510.893	689.39
511.259	779.2
511.625	626.28
511.991	606.87
512.356	618.52
512.722	632.59
513.088	796.68
513.453	730.65
513.819	700.07
514.184	709.78
514.55	902.02
514.915	688.91
515.28	637.45
515.646	660.27
516.011	629.2
516.376	612.21
516.741	772.4
517.106	586.48
517.471	634.05
517.836	769.49
518.201	761.72
518.566	869.49
518.931	688.91
519.296	702.5
519.661	612.69
520.025	682.11
520.39	577.74
520.755	710.27
521.119	615.12
521.484	664.15
521.848	664.63
522.213	728.71
522.577	556.87
522.942	790.85
523.306	588.42
523.67	688.91
524.034	541.33
524.399	494.24
524.763	1083.09
525.127	735.99
525.491	797.16
525.855	869.01
526.219	837.45
526.583	560.26
526.947	613.66
527.311	586.96
527.674	680.17
528.038	755.9
528.402	779.2
528.765	834.05
529.129	579.2
529.493	837.45
529.856	722.89
530.22	1119.98
530.583	807.84
530.946	777.26
531.31	771.92
531.673	710.27
532.036	1070.47
532.399	769.49
532.763	959.3
533.126	1326.78
533.489	1233.09
533.852	1247.17
534.215	1344.74
534.578	1260.76
534.94	1328.72
535.303	1362.7
535.666	1197.65
536.029	1292.8
536.391	1519.5
536.754	2121.94
537.117	1950.58
537.479	2391.36
537.842	2626.32
538.204	3055.45
538.567	3505.46
538.929	3818.08
539.291	4324.89
539.654	4920.53
540.016	5922.97
540.378	8040.96
540.74	9170.59
541.102	12170.64
541.464	16189.15
541.826	20631.45
542.188	23433.92
542.55	23397.51
542.912	21794.57
543.274	19985.81
543.636	18373.65
543.997	17767.81
544.359	17615.38
544.721	17638.68
545.082	18038.21
545.444	18185.78
545.805	24151.89
546.167	32466.1
546.528	36238.97
546.889	33003.49
547.251	25722.79
547.612	21063.5
547.973	17343.05
548.334	15033.3
548.695	13275.51
549.057	12023.55
549.418	10813.34
549.779	9910.41
550.14	9267.68
550.5	8427.86
550.861	7622.51
551.222	7079.3
551.583	6387.05
551.944	5719.08
552.304	5309.37
552.665	4846.25
553.025	4477.31
553.386	4162.26
553.746	3889.44
554.107	3745.26
554.467	3235.06
554.827	2954.48
555.188	2880.69
555.548	2610.78
555.908	2475.83
556.268	2435.54
556.628	2403.5
556.989	2032.13
557.349	1943.29
557.708	1958.83
558.068	2017.57
558.428	1818.05
558.788	1890.38
559.148	1899.12
559.508	1803.49
559.867	1642.8
560.227	1663.68
560.587	1632.61
560.946	1803
561.306	1651.06
561.665	1555.42
562.024	1608.34
562.384	1850.09
562.743	1798.63
563.102	1656.88
563.462	1550.57
563.821	1776.79
564.18	1610.77
564.539	1505.91
564.898	1513.19
565.257	1524.36
565.616	1676.79
565.975	1562.22
566.334	1625.33
566.692	1856.4
567.051	1521.44
567.41	1534.07
567.769	1584.07
568.127	1564.65
568.486	1582.12
568.844	1738.44
569.203	1581.15
569.561	1550.57
569.919	1478.72
570.278	1625.81
570.636	1654.46
570.994	1539.41
571.352	1533.58
571.711	1457.36
572.069	1456.39
572.427	1471.44
572.785	1730.18
573.143	1929.22
573.501	1554.45
573.858	6657.93
574.216	1827.27
574.574	1541.35
574.932	1958.34
575.289	1547.66
575.647	1559.79
576.005	1708.83
576.362	1871.45
576.72	2768.55
577.077	3910.8
577.434	4535.08
577.792	4737.51
578.149	3469.05
578.506	3274.87
578.864	3504
579.221	4136.53
579.578	4505.96
579.935	4358.38
580.292	4446.73
580.649	4589.45
581.006	4671.01
581.363	4413.72
581.719	4080.71
582.076	4345.76
582.433	4471.49
582.79	4776.83
583.146	5389.46
583.503	5806.46
583.859	5753.06
584.216	5901.61
584.572	5670.05
584.929	5874.42
585.285	5499.18
585.641	5134.61
585.998	5497.23
586.354	4982.18
586.71	5050.14
587.066	5814.23
587.422	7106.48
587.778	7871.54
588.134	7743.39
588.49	6700.16
588.846	5962.29
589.202	5051.6
589.557	4263.23
589.913	4037.02
590.269	3691.38
590.625	3567.59
590.98	3674.39
591.336	3756.43
591.691	3782.64
592.047	4797.71
592.402	4440.42
592.757	5088.49
593.113	5826.36
593.468	6401.62
593.823	6781.72
594.178	6216.66
594.533	5214.22
594.888	4572.95
595.243	3878.28
595.598	3727.79
595.953	3209.33
596.308	3195.26
596.663	3126.81
597.018	3057.88
597.373	3005.93
597.727	3180.21
598.082	3533.61
598.436	3045.25
598.791	3459.34
599.145	3735.07
599.5	4246.73
599.854	4559.84
600.209	4638
600.563	4293.82
600.917	4021.48
601.271	3635.55
601.626	3202.54
601.98	2871.46
602.334	2905.45
602.688	2927.29
603.042	2444.76
603.396	2198.15
603.749	2407.38
604.103	2421.46
604.457	2390.39
604.811	2251.55
605.164	2536.99
605.518	2455.92
605.872	2390.87
606.225	2707.38
606.579	2559.32
606.932	2789.42
607.285	2794.76
607.639	3023.41
607.992	3395.74
608.345	3520.5
608.698	4124.88
609.052	4420.52
609.405	5328.3
609.758	6439
610.111	8033.2
610.464	11364.8
610.817	18845.5
611.169	31505.89
611.522	44292.01
611.875	50452.79
612.228	47184.78
612.58	39560.38
612.933	32314.16
613.286	26849.51
613.638	22151.86
613.991	18662.49
614.343	16443.52
614.695	15393.5
615.048	14292.03
615.4	12987.16
615.752	11483.25
616.104	9775.94
616.457	8810.39
616.809	7120.56
617.161	5971.51
617.513	5206.94
617.865	4706.44
618.216	4320.52
618.568	4024.88
618.92	3666.14
619.272	3642.84
619.624	3420.5
619.975	3552.54
620.327	3680.7
620.678	3522.45
621.03	3606.91
621.381	3902.06
621.733	3818.08
622.084	3706.43
622.435	3752.55
622.787	4790.43
623.138	3753.03
623.489	3951.09
623.84	4882.18
624.191	4026.82
624.542	4462.27
624.893	4256.44
625.244	4352.56
625.595	4120.03
625.946	4126.34
626.296	4237.99
626.647	4072.94
626.998	4169.06
627.348	4102.07
627.699	4079.25
628.05	3711.77
628.4	3828.76
628.75	3567.11
629.101	3636.53
629.451	3462.25
629.801	3548.66
630.152	3645.75
630.502	4097.21
630.852	5004.51
631.202	5805.49
631.552	6663.27
631.902	5938.99
632.252	5056.94
632.602	4075.85
632.952	3317.59
633.302	2658.84
633.651	2193.3
634.001	1752.03
634.351	1561.25
634.7	1402.02
635.05	1257.85
635.399	1179.21
635.749	1285.52
636.098	1116.1
636.447	1612.71
636.797	1138.91
637.146	1139.4
637.495	1130.18
637.844	989.4
638.194	1000.56
638.543	944.74
638.892	1158.33
639.241	1063.67
639.589	958.81
639.938	863.67
640.287	886
640.636	818.03
640.985	753.96
641.333	847.65
641.682	914.64
642.03	938.42
642.379	1019.98
642.727	782.6
643.076	948.13
643.424	808.81
643.773	1132.6
644.121	918.52
644.469	1017.55
644.817	840.85
645.165	768.52
645.513	1069.98
645.861	826.77
646.209	813.18
646.557	852.5
646.905	911.24
647.253	751.53
647.601	754.44
647.948	811.24
648.296	878.23
648.644	749.1
648.991	771.92
649.339	804.44
649.686	925.32
650.034	1096.68
650.381	1395.23
650.728	1819.99
651.076	1874.36
651.423	1943.29
651.77	1684.07
652.117	1390.37
652.464	1188.91
652.811	1161.24
653.158	1085.51
653.505	1288.43
653.852	1199.11
654.199	1115.61
654.546	1077.75
654.893	820.95
655.239	997.65
655.586	837.94
655.932	786.48
656.279	758.81
656.625	877.74
656.972	714.63
657.318	873.86
657.665	764.15
658.011	858.33
658.357	735.02
658.703	724.83
659.049	3972.94
659.396	772.89
659.742	889.88
660.088	709.78
660.434	643.76
660.779	558.81
661.125	675.31
661.471	772.89
661.817	595.22
662.162	854.93
662.508	1177.75
662.854	1305.91
663.199	1215.13
663.545	1063.18
663.89	918.04
664.236	997.16
664.581	803.96
664.926	749.59
665.271	691.82
665.617	858.33
665.962	724.34
666.307	686.48
666.652	546.67
666.997	575.8
667.342	484.53
667.687	549.58
668.031	706.87
668.376	658.81
668.721	504.92
669.066	444.24
669.41	556.87
669.755	551.53
670.099	637.93
670.444	547.64
670.788	516.09
671.133	482.59
671.477	589.39
671.821	402.01
672.166	423.37
672.51	1386.98
672.854	513.18
673.198	444.24
673.542	454.44
673.886	381.13
674.23	502.98
674.574	522.4
674.918	447.16
675.261	420.94
675.605	563.66
675.949	588.42
676.292	525.8
676.636	543.76
676.98	341.81
677.323	519.49
677.666	337.93
678.01	829.2
678.353	513.66
678.696	885.51
679.04	468.51
679.383	373.85
679.726	369.48
680.069	470.46
680.412	523.86
680.755	434.05
681.098	444.73
681.441	501.52
681.784	519.97
682.126	864.64
682.469	440.84
682.812	515.6
683.154	530.17
683.497	496.18
683.84	740.36
684.182	571.91
684.524	507.35
684.867	347.15
685.209	380.16
685.551	335.5
685.894	713.18
686.236	645.22
686.578	526.77
686.92	723.86
687.262	646.67
687.604	774.34
687.946	1987.47
688.288	1483.58
688.629	825.32
688.971	818.03
689.313	612.21
689.655	798.13
689.996	603.47
690.338	2688.94
690.679	1011.73
691.021	478.22
691.362	388.42
691.703	652.98
692.045	318.03
692.386	557.35
692.727	585.99
693.068	361.72
693.409	542.3
693.75	670.46
694.091	687.94
694.432	947.65
694.773	746.19
695.114	509.29
695.455	401.04
695.796	344.73
696.136	447.16
696.477	401.04
696.818	319.48
697.158	265.11
697.499	192.78
697.839	308.8
698.179	520.46
698.52	462.69
698.86	187.44
699.2	344.73
699.54	262.2
699.88	229.68
700.221	365.11
700.561	226.28
700.901	174.82
701.24	382.11
701.58	181.13
701.92	385.5
702.26	263.17
702.6	229.19
702.939	212.69
703.279	271.91
703.618	606.38
703.958	639.88
704.297	423.85
704.637	374.34
704.976	443.27
705.315	352.01
705.655	434.05
705.994	539.87
706.333	852.02
706.672	961.73
707.011	1079.2
707.35	1527.75
707.689	1443.29
708.028	1353.97
708.367	1271.93
708.706	1350.08
709.044	1440.37
709.383	1783.58
709.722	1923.88
710.06	1622.9
710.399	1225.81
710.737	962.21
711.076	914.64
711.414	1083.09
711.752	1001.53
712.091	1102.99
712.429	1276.29
712.767	1487.46
713.105	1506.88
713.443	1175.81
713.781	1069.49
714.119	669.49
714.457	956.87
714.795	955.9
715.133	588.9
715.471	352.49
715.808	452.98
716.146	517.06
716.484	265.11
716.821	221.91
717.159	132.1
717.496	488.9
717.833	180.65
718.171	219.48
718.508	1061.24
718.845	452.98
719.182	297.15
719.52	265.6
719.857	250.06
720.194	395.7
720.531	135.5
720.868	211.71
721.204	240.84
721.541	192.3
721.878	251.52
722.215	310.75
722.551	196.67
722.888	185.02
723.225	279.19
723.561	184.04
723.898	142.3
724.234	216.08
724.57	216.57
724.907	177.25
725.243	234.53
725.579	229.19
725.915	377.74
726.251	147.15
726.587	191.81
726.923	364.63
727.259	154.92
727.595	218.03
727.931	235.99
728.267	231.62
728.602	150.06
728.938	351.04
729.274	256.38
729.609	171.91
729.945	216.57
730.28	248.61
730.616	457.35
730.951	195.21
731.286	390.36
731.622	193.27
731.957	151.52
732.292	216.57
732.627	599.58
732.962	469.97
733.297	246.67
733.632	134.53
733.967	184.53
734.302	338.42
734.637	193.75
734.971	179.19
735.306	171.91
735.641	235.5
735.975	179.19
736.31	298.61
736.644	268.03
736.979	218.51
737.313	163.17
737.647	108.8
737.982	338.42
738.316	185.99
738.65	229.19
738.984	1000.56
739.318	324.34
739.652	169.48
739.986	255.4
740.32	330.65
740.654	193.75
740.988	131.13
741.321	252.49
741.655	222.39
741.989	358.8
742.322	155.4
742.656	322.4
742.989	304.92
743.323	439.87
743.656	234.53
743.989	301.52
744.323	375.79
744.656	190.35
744.989	314.14
745.322	186.96
745.655	401.04
745.988	224.34
746.321	275.31
746.654	141.81
746.987	175.79
747.32	156.37
747.652	128.7
747.985	147.64
748.318	151.03
748.65	105.89
748.983	172.39
749.315	230.16
749.648	299.58
749.98	228.71
750.312	112.68
750.645	162.2
750.977	165.6
751.309	323.37
751.641	195.69
751.973	154.43
752.305	157.34
752.637	225.31
752.969	185.02
753.301	259.29
753.632	218.03
753.964	244.24
754.296	254.92
754.627	155.89
754.959	239.87
755.291	244.24
755.622	204.43
755.953	222.88
756.285	140.35
756.616	343.27
756.947	167.54
757.279	386.96
757.61	135.99
757.941	275.31
758.272	212.69
758.603	186.47
758.934	111.71
759.265	150.06
759.595	154.43
759.926	164.14
760.257	269.48
760.588	272.88
760.918	316.09
761.249	261.72
761.579	318.03
761.91	363.66
762.24	238.9
762.57	235.99
762.901	330.65
763.231	153.95
763.561	292.3
763.891	200.06
764.221	424.82
764.551	144.72
764.881	335.02
765.211	119.97
765.541	96.18
765.871	81.13
766.201	301.04
766.53	207.35
766.86	810.75
767.19	175.79
767.519	330.16
767.849	264.14
768.178	271.91
768.507	329.19
768.837	245.7
769.166	92.3
769.495	271.42
769.824	143.75
770.154	187.93
770.483	236.96
770.812	473.37
771.141	408.32
771.469	106.86
771.798	367.54
772.127	250.55
772.456	188.41
772.785	193.75
773.113	434.53
773.442	167.05
773.77	298.12
774.099	284.53
